prb0.0005
2025-05-14 13:12:16
Dł. fali (nm);Absorbancja
750,00;-0,137440
749,00;-0,133442
748,00;-0,134774
747,00;-0,134400
746,00;-0,133940
745,00;-0,132653
744,00;-0,133395
743,00;-0,134235
742,00;-0,131819
741,00;-0,131713
740,00;-0,136402
739,00;-0,131556
738,00;-0,133828
737,00;-0,130848
736,00;-0,134246
735,00;-0,136484
734,00;-0,132426
733,00;-0,131267
732,00;-0,136152
731,00;-0,133897
730,00;-0,133113
729,00;-0,135548
728,00;-0,135989
727,00;-0,137665
726,00;-0,138897
725,00;-0,134764
724,00;-0,136962
723,00;-0,135834
722,00;-0,137893
721,00;-0,136906
720,00;-0,137870
719,00;-0,138222
718,00;-0,138653
717,00;-0,140469
716,00;-0,139960
715,00;-0,139314
714,00;-0,138617
713,00;-0,138502
712,00;-0,138260
711,00;-0,137709
710,00;-0,137755
709,00;-0,138126
708,00;-0,138935
707,00;-0,138838
706,00;-0,137321
705,00;-0,138935
704,00;-0,139428
703,00;-0,140971
702,00;-0,139039
701,00;-0,136376
700,00;-0,137013
699,00;-0,137079
698,00;-0,142556
697,00;-0,139796
696,00;-0,136768
695,00;-0,137892
694,00;-0,136252
693,00;-0,136804
692,00;-0,136263
691,00;-0,136495
690,00;-0,136664
689,00;-0,137503
688,00;-0,135147
687,00;-0,137181
686,00;-0,137273
685,00;-0,134637
684,00;-0,133460
683,00;-0,135017
682,00;-0,136736
681,00;-0,132068
680,00;-0,135738
679,00;-0,133124
678,00;-0,134216
677,00;-0,135207
676,00;-0,134917
675,00;-0,134663
674,00;-0,134714
673,00;-0,134614
672,00;-0,134346
671,00;-0,131961
670,00;-0,132791
669,00;-0,134099
668,00;-0,132553
667,00;-0,132252
666,00;-0,129970
665,00;-0,130630
664,00;-0,133180
663,00;-0,130984
662,00;-0,130625
661,00;-0,129139
660,00;-0,128907
659,00;-0,131103
658,00;-0,130871
657,00;-0,124839
656,00;-0,128746
655,00;-0,127625
654,00;-0,127360
653,00;-0,129019
652,00;-0,124488
651,00;-0,128613
650,00;-0,124723
649,00;-0,125711
648,00;-0,124929
647,00;-0,123898
646,00;-0,125321
645,00;-0,123702
644,00;-0,125357
643,00;-0,126949
642,00;-0,123553
641,00;-0,122308
640,00;-0,119786
639,00;-0,124306
638,00;-0,118602
637,00;-0,123586
636,00;-0,121350
635,00;-0,120001
634,00;-0,121166
633,00;-0,122923
632,00;-0,120165
631,00;-0,121734
630,00;-0,120254
629,00;-0,118802
628,00;-0,120813
627,00;-0,119811
626,00;-0,121387
625,00;-0,121326
624,00;-0,120334
623,00;-0,115706
622,00;-0,118433
621,00;-0,119502
620,00;-0,118978
619,00;-0,116658
618,00;-0,118467
617,00;-0,119581
616,00;-0,119408
615,00;-0,117943
614,00;-0,113742
613,00;-0,117601
612,00;-0,115394
611,00;-0,115241
610,00;-0,113694
609,00;-0,115162
608,00;-0,116954
607,00;-0,114393
606,00;-0,113200
605,00;-0,111770
604,00;-0,114062
603,00;-0,113573
602,00;-0,114778
601,00;-0,113836
600,00;-0,110953
599,00;-0,110742
598,00;-0,109287
597,00;-0,107458
596,00;-0,112584
595,00;-0,108105
594,00;-0,107936
593,00;-0,109165
592,00;-0,107027
591,00;-0,103664
590,00;-0,100752
589,00;-0,099960
588,00;-0,099282
587,00;-0,092911
586,00;-0,093884
585,00;-0,086786
584,00;-0,082372
583,00;-0,076549
582,00;-0,071687
581,00;-0,062917
580,00;-0,056718
579,00;-0,045965
578,00;-0,036292
577,00;-0,024331
576,00;-0,014241
575,00;-0,003380
574,00;0,010388
573,00;0,017530
572,00;0,024499
571,00;0,030575
570,00;0,040507
569,00;0,045284
568,00;0,049920
567,00;0,051053
566,00;0,050097
565,00;0,048307
564,00;0,048478
563,00;0,051142
562,00;0,048429
561,00;0,050152
560,00;0,052181
559,00;0,057596
558,00;0,065609
557,00;0,075078
556,00;0,080909
555,00;0,095354
554,00;0,109121
553,00;0,121598
552,00;0,135411
551,00;0,153074
550,00;0,170164
549,00;0,182501
548,00;0,190697
547,00;0,200533
546,00;0,199234
545,00;0,201887
544,00;0,203873
543,00;0,194591
542,00;0,192290
541,00;0,176143
540,00;0,167829
539,00;0,164101
538,00;0,160392
537,00;0,157600
536,00;0,150802
535,00;0,154122
534,00;0,157367
533,00;0,157360
532,00;0,165415
531,00;0,174846
530,00;0,189964
529,00;0,195547
528,00;0,197855
527,00;0,205983
526,00;0,212498
525,00;0,209435
524,00;0,210268
523,00;0,203176
522,00;0,195620
521,00;0,183388
520,00;0,178391
519,00;0,167860
518,00;0,152873
517,00;0,137406
516,00;0,130506
515,00;0,125026
514,00;0,119151
513,00;0,115788
512,00;0,115791
511,00;0,115920
510,00;0,117491
509,00;0,122283
508,00;0,121356
507,00;0,122759
506,00;0,124153
505,00;0,119745
504,00;0,112434
503,00;0,106842
502,00;0,098022
501,00;0,088363
500,00;0,076542
499,00;0,067995
498,00;0,059434
497,00;0,048326
496,00;0,038451
495,00;0,033922
494,00;0,028880
493,00;0,027523
492,00;0,025395
491,00;0,013638
490,00;0,017167
489,00;0,019495
488,00;0,017305
487,00;0,005932
486,00;0,004767
485,00;0,004539
484,00;-0,002292
483,00;-0,017370
482,00;-0,020895
481,00;-0,026031
480,00;-0,034887
479,00;-0,040896
478,00;-0,043243
477,00;-0,050155
476,00;-0,053956
475,00;-0,059828
474,00;-0,061424
473,00;-0,063716
472,00;-0,062324
471,00;-0,071034
470,00;-0,068153
469,00;-0,073058
468,00;-0,073588
467,00;-0,076836
466,00;-0,084765
465,00;-0,086051
464,00;-0,091099
463,00;-0,095685
462,00;-0,095100
461,00;-0,096605
460,00;-0,101267
459,00;-0,109669
458,00;-0,109499
457,00;-0,111023
456,00;-0,111792
455,00;-0,111462
454,00;-0,115183
453,00;-0,110478
452,00;-0,117601
451,00;-0,119637
450,00;-0,123309
449,00;-0,124693
448,00;-0,120576
447,00;-0,125296
446,00;-0,125996
445,00;-0,131318
444,00;-0,130143
443,00;-0,130592
442,00;-0,129049
441,00;-0,134122
440,00;-0,139375
439,00;-0,140209
438,00;-0,136316
437,00;-0,135807
436,00;-0,136941
435,00;-0,133410
434,00;-0,137710
433,00;-0,138012
432,00;-0,142059
431,00;-0,139915
430,00;-0,148776
429,00;-0,141265
428,00;-0,135337
427,00;-0,141378
426,00;-0,140104
425,00;-0,140696
424,00;-0,142696
423,00;-0,140014
422,00;-0,141614
421,00;-0,143618
420,00;-0,145581
419,00;-0,144764
418,00;-0,142076
417,00;-0,145226
416,00;-0,145292
415,00;-0,146078
414,00;-0,143754
413,00;-0,145029
412,00;-0,135328
411,00;-0,143479
410,00;-0,139393
409,00;-0,142491
408,00;-0,142456
407,00;-0,134987
406,00;-0,137047
405,00;-0,141593
404,00;-0,138346
403,00;-0,137264
402,00;-0,137352
401,00;-0,133626
400,00;-0,128954


prb0.0004
2025-05-14 13:13:48
Dł. fali (nm);Absorbancja
750,00;-0,046285
749,00;-0,040974
748,00;-0,041833
747,00;-0,042647
746,00;-0,043923
745,00;-0,042767
744,00;-0,045170
743,00;-0,042749
742,00;-0,042425
741,00;-0,041867
740,00;-0,044260
739,00;-0,043797
738,00;-0,043806
737,00;-0,040580
736,00;-0,044675
735,00;-0,045585
734,00;-0,043369
733,00;-0,043788
732,00;-0,044709
731,00;-0,044066
730,00;-0,044115
729,00;-0,045276
728,00;-0,044848
727,00;-0,044561
726,00;-0,049014
725,00;-0,046304
724,00;-0,047106
723,00;-0,043557
722,00;-0,045840
721,00;-0,045179
720,00;-0,048071
719,00;-0,049306
718,00;-0,048446
717,00;-0,051920
716,00;-0,049405
715,00;-0,047253
714,00;-0,050751
713,00;-0,046484
712,00;-0,047572
711,00;-0,045732
710,00;-0,047762
709,00;-0,048133
708,00;-0,048408
707,00;-0,046137
706,00;-0,045318
705,00;-0,048961
704,00;-0,049609
703,00;-0,048891
702,00;-0,049433
701,00;-0,046046
700,00;-0,047618
699,00;-0,049158
698,00;-0,049270
697,00;-0,048060
696,00;-0,044381
695,00;-0,047834
694,00;-0,045476
693,00;-0,048108
692,00;-0,046230
691,00;-0,047535
690,00;-0,045737
689,00;-0,049441
688,00;-0,046742
687,00;-0,048486
686,00;-0,049503
685,00;-0,046863
684,00;-0,043582
683,00;-0,046646
682,00;-0,046398
681,00;-0,041750
680,00;-0,045231
679,00;-0,043711
678,00;-0,045080
677,00;-0,045804
676,00;-0,046938
675,00;-0,044769
674,00;-0,046797
673,00;-0,045330
672,00;-0,046109
671,00;-0,040242
670,00;-0,043311
669,00;-0,043422
668,00;-0,042729
667,00;-0,042403
666,00;-0,040779
665,00;-0,039597
664,00;-0,045187
663,00;-0,041173
662,00;-0,041809
661,00;-0,041241
660,00;-0,041949
659,00;-0,039783
658,00;-0,042679
657,00;-0,037388
656,00;-0,044524
655,00;-0,040547
654,00;-0,039631
653,00;-0,041876
652,00;-0,036959
651,00;-0,037661
650,00;-0,036714
649,00;-0,039054
648,00;-0,038059
647,00;-0,037578
646,00;-0,040018
645,00;-0,036431
644,00;-0,039145
643,00;-0,039514
642,00;-0,038572
641,00;-0,035233
640,00;-0,033851
639,00;-0,037206
638,00;-0,029937
637,00;-0,036907
636,00;-0,034813
635,00;-0,034068
634,00;-0,036626
633,00;-0,036944
632,00;-0,034610
631,00;-0,035483
630,00;-0,034761
629,00;-0,032856
628,00;-0,034346
627,00;-0,032231
626,00;-0,033641
625,00;-0,035371
624,00;-0,034663
623,00;-0,030958
622,00;-0,031709
621,00;-0,033158
620,00;-0,033100
619,00;-0,028749
618,00;-0,031209
617,00;-0,033123
616,00;-0,034679
615,00;-0,034287
614,00;-0,029851
613,00;-0,034785
612,00;-0,029807
611,00;-0,030644
610,00;-0,030036
609,00;-0,029525
608,00;-0,031935
607,00;-0,031057
606,00;-0,028006
605,00;-0,027787
604,00;-0,028378
603,00;-0,029143
602,00;-0,027965
601,00;-0,028735
600,00;-0,028545
599,00;-0,026941
598,00;-0,025397
597,00;-0,024824
596,00;-0,028357
595,00;-0,023517
594,00;-0,024026
593,00;-0,022724
592,00;-0,024249
591,00;-0,021686
590,00;-0,017592
589,00;-0,015308
588,00;-0,018089
587,00;-0,010075
586,00;-0,014704
585,00;-0,006193
584,00;-0,003298
583,00;-0,000346
582,00;0,005048
581,00;0,012476
580,00;0,015818
579,00;0,025296
578,00;0,034374
577,00;0,045496
576,00;0,052672
575,00;0,062157
574,00;0,073305
573,00;0,076931
572,00;0,082049
571,00;0,091757
570,00;0,095151
569,00;0,099941
568,00;0,104704
567,00;0,103360
566,00;0,105051
565,00;0,105201
564,00;0,103876
563,00;0,104315
562,00;0,103789
561,00;0,105355
560,00;0,106931
559,00;0,109843
558,00;0,117372
557,00;0,125623
556,00;0,128085
555,00;0,141851
554,00;0,150836
553,00;0,162042
552,00;0,172457
551,00;0,188043
550,00;0,203043
549,00;0,210455
548,00;0,215405
547,00;0,225819
546,00;0,223890
545,00;0,227325
544,00;0,228066
543,00;0,219740
542,00;0,217535
541,00;0,207666
540,00;0,200808
539,00;0,196624
538,00;0,192652
537,00;0,190018
536,00;0,187591
535,00;0,189005
534,00;0,189239
533,00;0,192331
532,00;0,199848
531,00;0,204278
530,00;0,215967
529,00;0,222327
528,00;0,225488
527,00;0,230613
526,00;0,236869
525,00;0,233261
524,00;0,231286
523,00;0,226989
522,00;0,222127
521,00;0,209555
520,00;0,209451
519,00;0,200940
518,00;0,188438
517,00;0,177194
516,00;0,171537
515,00;0,162813
514,00;0,159949
513,00;0,157024
512,00;0,158296
511,00;0,158337
510,00;0,157838
509,00;0,163155
508,00;0,163306
507,00;0,166890
506,00;0,164645
505,00;0,159997
504,00;0,155516
503,00;0,151848
502,00;0,140056
501,00;0,134680
500,00;0,125242
499,00;0,118447
498,00;0,112488
497,00;0,104235
496,00;0,095717
495,00;0,093184
494,00;0,085895
493,00;0,084023
492,00;0,082529
491,00;0,076413
490,00;0,079694
489,00;0,079504
488,00;0,077438
487,00;0,067139
486,00;0,070395
485,00;0,066782
484,00;0,060203
483,00;0,054039
482,00;0,048893
481,00;0,043461
480,00;0,038015
479,00;0,030009
478,00;0,031315
477,00;0,023641
476,00;0,023867
475,00;0,015628
474,00;0,012516
473,00;0,013350
472,00;0,012416
471,00;0,004560
470,00;0,008376
469,00;0,004223
468,00;0,005348
467,00;0,003245
466,00;-0,006470
465,00;-0,004367
464,00;-0,009548
463,00;-0,013199
462,00;-0,014187
461,00;-0,014021
460,00;-0,018800
459,00;-0,025509
458,00;-0,025043
457,00;-0,025170
456,00;-0,025801
455,00;-0,026559
454,00;-0,030687
453,00;-0,025558
452,00;-0,034406
451,00;-0,033879
450,00;-0,038738
449,00;-0,038627
448,00;-0,035019
447,00;-0,036849
446,00;-0,039423
445,00;-0,041927
444,00;-0,039877
443,00;-0,042514
442,00;-0,042619
441,00;-0,046224
440,00;-0,050097
439,00;-0,051103
438,00;-0,050108
437,00;-0,046229
436,00;-0,045920
435,00;-0,045786
434,00;-0,048265
433,00;-0,044872
432,00;-0,052403
431,00;-0,050770
430,00;-0,056302
429,00;-0,051395
428,00;-0,047238
427,00;-0,052334
426,00;-0,049791
425,00;-0,052252
424,00;-0,050520
423,00;-0,052079
422,00;-0,057418
421,00;-0,051761
420,00;-0,054644
419,00;-0,052939
418,00;-0,051240
417,00;-0,054722
416,00;-0,058393
415,00;-0,054280
414,00;-0,052548
413,00;-0,054344
412,00;-0,044127
411,00;-0,050954
410,00;-0,050445
409,00;-0,053322
408,00;-0,052879
407,00;-0,046218
406,00;-0,045563
405,00;-0,050648
404,00;-0,050471
403,00;-0,045220
402,00;-0,047225
401,00;-0,047254
400,00;-0,041959


prb0.0003
2025-05-14 13:14:46
Dł. fali (nm);Absorbancja
750,00;-0,040525
749,00;-0,039369
748,00;-0,039461
747,00;-0,041071
746,00;-0,040641
745,00;-0,037653
744,00;-0,042746
743,00;-0,038822
742,00;-0,038977
741,00;-0,037185
740,00;-0,038952
739,00;-0,040669
738,00;-0,038627
737,00;-0,038792
736,00;-0,039835
735,00;-0,042804
734,00;-0,038947
733,00;-0,037593
732,00;-0,042355
731,00;-0,042298
730,00;-0,041284
729,00;-0,043063
728,00;-0,041103
727,00;-0,043618
726,00;-0,045817
725,00;-0,041099
724,00;-0,041884
723,00;-0,041568
722,00;-0,042859
721,00;-0,044978
720,00;-0,042036
719,00;-0,044311
718,00;-0,043613
717,00;-0,046094
716,00;-0,045644
715,00;-0,044458
714,00;-0,044780
713,00;-0,042930
712,00;-0,042638
711,00;-0,043970
710,00;-0,042416
709,00;-0,045339
708,00;-0,045860
707,00;-0,045018
706,00;-0,044034
705,00;-0,042800
704,00;-0,044782
703,00;-0,046638
702,00;-0,045657
701,00;-0,043280
700,00;-0,044232
699,00;-0,045713
698,00;-0,047420
697,00;-0,045382
696,00;-0,043128
695,00;-0,043691
694,00;-0,044375
693,00;-0,043764
692,00;-0,040953
691,00;-0,043653
690,00;-0,042895
689,00;-0,045128
688,00;-0,041370
687,00;-0,044585
686,00;-0,042070
685,00;-0,041474
684,00;-0,038652
683,00;-0,044230
682,00;-0,043837
681,00;-0,040215
680,00;-0,042376
679,00;-0,039671
678,00;-0,042538
677,00;-0,043177
676,00;-0,042233
675,00;-0,037947
674,00;-0,041470
673,00;-0,042394
672,00;-0,039935
671,00;-0,036722
670,00;-0,038551
669,00;-0,041142
668,00;-0,038150
667,00;-0,040232
666,00;-0,036781
665,00;-0,038900
664,00;-0,042815
663,00;-0,037633
662,00;-0,039369
661,00;-0,037742
660,00;-0,038807
659,00;-0,038978
658,00;-0,036755
657,00;-0,030413
656,00;-0,035894
655,00;-0,034968
654,00;-0,034154
653,00;-0,037498
652,00;-0,033621
651,00;-0,037550
650,00;-0,032880
649,00;-0,034485
648,00;-0,034653
647,00;-0,032721
646,00;-0,033953
645,00;-0,034378
644,00;-0,034070
643,00;-0,035739
642,00;-0,031017
641,00;-0,029970
640,00;-0,031495
639,00;-0,032575
638,00;-0,029876
637,00;-0,031476
636,00;-0,031069
635,00;-0,030983
634,00;-0,031659
633,00;-0,032189
632,00;-0,030067
631,00;-0,032743
630,00;-0,029060
629,00;-0,029374
628,00;-0,030272
627,00;-0,030237
626,00;-0,030415
625,00;-0,030066
624,00;-0,031074
623,00;-0,025246
622,00;-0,030854
621,00;-0,031243
620,00;-0,027648
619,00;-0,027590
618,00;-0,028309
617,00;-0,029013
616,00;-0,027852
615,00;-0,030369
614,00;-0,024973
613,00;-0,029075
612,00;-0,027588
611,00;-0,027477
610,00;-0,026817
609,00;-0,025576
608,00;-0,025412
607,00;-0,024687
606,00;-0,022721
605,00;-0,023751
604,00;-0,022114
603,00;-0,024154
602,00;-0,023291
601,00;-0,025082
600,00;-0,025072
599,00;-0,024741
598,00;-0,023695
597,00;-0,020747
596,00;-0,023536
595,00;-0,019996
594,00;-0,017995
593,00;-0,020955
592,00;-0,020075
591,00;-0,016421
590,00;-0,013276
589,00;-0,015354
588,00;-0,010234
587,00;-0,008505
586,00;-0,010494
585,00;-0,000880
584,00;0,001062
583,00;0,007345
582,00;0,008625
581,00;0,017902
580,00;0,021728
579,00;0,031497
578,00;0,038207
577,00;0,050900
576,00;0,057892
575,00;0,068412
574,00;0,078929
573,00;0,084095
572,00;0,088134
571,00;0,095449
570,00;0,103592
569,00;0,107417
568,00;0,113333
567,00;0,110836
566,00;0,112600
565,00;0,112059
564,00;0,108330
563,00;0,112561
562,00;0,111871
561,00;0,113347
560,00;0,114230
559,00;0,117993
558,00;0,124067
557,00;0,133485
556,00;0,137223
555,00;0,151076
554,00;0,160299
553,00;0,172205
552,00;0,182268
551,00;0,196156
550,00;0,210831
549,00;0,220323
548,00;0,226541
547,00;0,237791
546,00;0,236741
545,00;0,238834
544,00;0,237382
543,00;0,230704
542,00;0,229075
541,00;0,217951
540,00;0,209897
539,00;0,205852
538,00;0,201493
537,00;0,201798
536,00;0,197499
535,00;0,198313
534,00;0,199521
533,00;0,202559
532,00;0,208211
531,00;0,213695
530,00;0,227303
529,00;0,232511
528,00;0,237198
527,00;0,241494
526,00;0,247150
525,00;0,247059
524,00;0,244258
523,00;0,239015
522,00;0,233713
521,00;0,221756
520,00;0,218417
519,00;0,209923
518,00;0,198311
517,00;0,185127
516,00;0,179009
515,00;0,175056
514,00;0,170178
513,00;0,165660
512,00;0,166963
511,00;0,167061
510,00;0,168743
509,00;0,173357
508,00;0,170146
507,00;0,172075
506,00;0,173630
505,00;0,168352
504,00;0,166200
503,00;0,160739
502,00;0,152354
501,00;0,144432
500,00;0,132535
499,00;0,124781
498,00;0,123155
497,00;0,113217
496,00;0,103607
495,00;0,099026
494,00;0,094473
493,00;0,089924
492,00;0,090193
491,00;0,084350
490,00;0,087256
489,00;0,084760
488,00;0,083571
487,00;0,075033
486,00;0,077706
485,00;0,070559
484,00;0,069071
483,00;0,061154
482,00;0,055605
481,00;0,052854
480,00;0,038346
479,00;0,037744
478,00;0,033129
477,00;0,029169
476,00;0,026460
475,00;0,022092
474,00;0,022356
473,00;0,014427
472,00;0,021121
471,00;0,011984
470,00;0,013835
469,00;0,007714
468,00;0,010352
467,00;0,005394
466,00;-0,001043
465,00;-0,002873
464,00;-0,006800
463,00;-0,007090
462,00;-0,006641
461,00;-0,010125
460,00;-0,015952
459,00;-0,017947
458,00;-0,021480
457,00;-0,018958
456,00;-0,022621
455,00;-0,022945
454,00;-0,024527
453,00;-0,020421
452,00;-0,026101
451,00;-0,029634
450,00;-0,032604
449,00;-0,033656
448,00;-0,030698
447,00;-0,035310
446,00;-0,034689
445,00;-0,042169
444,00;-0,037952
443,00;-0,038342
442,00;-0,038012
441,00;-0,041365
440,00;-0,046092
439,00;-0,047989
438,00;-0,042914
437,00;-0,042357
436,00;-0,045556
435,00;-0,039132
434,00;-0,044411
433,00;-0,042273
432,00;-0,046340
431,00;-0,045008
430,00;-0,055338
429,00;-0,046319
428,00;-0,043479
427,00;-0,046687
426,00;-0,047563
425,00;-0,047030
424,00;-0,049338
423,00;-0,045479
422,00;-0,048013
421,00;-0,047968
420,00;-0,051093
419,00;-0,050467
418,00;-0,045678
417,00;-0,052459
416,00;-0,047911
415,00;-0,051892
414,00;-0,045877
413,00;-0,053517
412,00;-0,039644
411,00;-0,050616
410,00;-0,044831
409,00;-0,046479
408,00;-0,049612
407,00;-0,042190
406,00;-0,044293
405,00;-0,049426
404,00;-0,041402
403,00;-0,043215
402,00;-0,044356
401,00;-0,041450
400,00;-0,036440


prb0.0002
2025-05-14 13:19:19
Dł. fali (nm);Absorbancja
750,00;-0,081340
749,00;-0,075318
748,00;-0,077293
747,00;-0,076218
746,00;-0,076510
745,00;-0,075923
744,00;-0,079492
743,00;-0,077743
742,00;-0,077858
741,00;-0,075894
740,00;-0,078424
739,00;-0,076792
738,00;-0,076803
737,00;-0,077516
736,00;-0,078444
735,00;-0,081002
734,00;-0,075409
733,00;-0,076131
732,00;-0,079615
731,00;-0,077749
730,00;-0,077561
729,00;-0,081488
728,00;-0,078723
727,00;-0,082208
726,00;-0,081697
725,00;-0,080202
724,00;-0,082317
723,00;-0,078504
722,00;-0,081843
721,00;-0,080347
720,00;-0,080959
719,00;-0,082701
718,00;-0,082542
717,00;-0,084458
716,00;-0,084153
715,00;-0,082992
714,00;-0,084827
713,00;-0,082218
712,00;-0,083682
711,00;-0,083623
710,00;-0,082567
709,00;-0,083572
708,00;-0,083407
707,00;-0,084977
706,00;-0,081897
705,00;-0,083597
704,00;-0,084183
703,00;-0,083597
702,00;-0,084178
701,00;-0,081857
700,00;-0,082019
699,00;-0,082363
698,00;-0,085511
697,00;-0,084331
696,00;-0,081372
695,00;-0,083196
694,00;-0,082735
693,00;-0,083772
692,00;-0,082294
691,00;-0,081484
690,00;-0,080485
689,00;-0,084010
688,00;-0,080530
687,00;-0,084334
686,00;-0,082478
685,00;-0,080605
684,00;-0,079816
683,00;-0,080760
682,00;-0,084279
681,00;-0,081300
680,00;-0,081245
679,00;-0,080219
678,00;-0,079722
677,00;-0,082701
676,00;-0,081488
675,00;-0,082408
674,00;-0,083037
673,00;-0,080898
672,00;-0,081387
671,00;-0,079461
670,00;-0,080368
669,00;-0,079583
668,00;-0,078864
667,00;-0,079343
666,00;-0,077173
665,00;-0,077154
664,00;-0,080596
663,00;-0,080183
662,00;-0,079662
661,00;-0,077252
660,00;-0,077046
659,00;-0,077884
658,00;-0,078458
657,00;-0,073151
656,00;-0,078223
655,00;-0,073740
654,00;-0,076745
653,00;-0,078106
652,00;-0,072726
651,00;-0,075026
650,00;-0,073734
649,00;-0,076207
648,00;-0,073311
647,00;-0,073009
646,00;-0,075619
645,00;-0,073942
644,00;-0,074996
643,00;-0,075684
642,00;-0,072377
641,00;-0,071714
640,00;-0,069956
639,00;-0,073083
638,00;-0,068436
637,00;-0,071553
636,00;-0,070998
635,00;-0,071851
634,00;-0,070128
633,00;-0,071467
632,00;-0,070401
631,00;-0,070949
630,00;-0,068984
629,00;-0,069729
628,00;-0,072213
627,00;-0,070722
626,00;-0,072266
625,00;-0,072285
624,00;-0,069766
623,00;-0,064729
622,00;-0,070424
621,00;-0,069450
620,00;-0,069533
619,00;-0,068136
618,00;-0,070720
617,00;-0,069868
616,00;-0,070705
615,00;-0,069295
614,00;-0,064586
613,00;-0,070666
612,00;-0,068109
611,00;-0,065796
610,00;-0,065948
609,00;-0,067716
608,00;-0,066961
607,00;-0,066194
606,00;-0,066802
605,00;-0,064223
604,00;-0,064798
603,00;-0,064968
602,00;-0,065492
601,00;-0,067085
600,00;-0,065326
599,00;-0,063263
598,00;-0,063108
597,00;-0,060495
596,00;-0,064171
595,00;-0,061306
594,00;-0,060952
593,00;-0,061495
592,00;-0,062051
591,00;-0,057897
590,00;-0,055470
589,00;-0,054750
588,00;-0,053911
587,00;-0,049891
586,00;-0,050409
585,00;-0,045255
584,00;-0,040881
583,00;-0,036450
582,00;-0,033062
581,00;-0,026792
580,00;-0,022833
579,00;-0,013769
578,00;-0,006105
577,00;0,003994
576,00;0,011494
575,00;0,021446
574,00;0,031247
573,00;0,037129
572,00;0,042168
571,00;0,048142
570,00;0,053869
569,00;0,058340
568,00;0,063223
567,00;0,062324
566,00;0,063356
565,00;0,060800
564,00;0,059446
563,00;0,062576
562,00;0,059263
561,00;0,062903
560,00;0,062418
559,00;0,068905
558,00;0,074307
557,00;0,083175
556,00;0,086942
555,00;0,097850
554,00;0,106490
553,00;0,117799
552,00;0,129034
551,00;0,141392
550,00;0,155498
549,00;0,164960
548,00;0,171065
547,00;0,180155
546,00;0,177846
545,00;0,181280
544,00;0,182047
543,00;0,174578
542,00;0,170032
541,00;0,162202
540,00;0,154178
539,00;0,150557
538,00;0,147571
537,00;0,146439
536,00;0,140500
535,00;0,143084
534,00;0,143917
533,00;0,147785
532,00;0,153214
531,00;0,158783
530,00;0,170705
529,00;0,176218
528,00;0,179569
527,00;0,183438
526,00;0,188825
525,00;0,187266
524,00;0,185144
523,00;0,180878
522,00;0,173238
521,00;0,165140
520,00;0,161704
519,00;0,153964
518,00;0,143125
517,00;0,129831
516,00;0,123747
515,00;0,118471
514,00;0,114677
513,00;0,112602
512,00;0,113539
511,00;0,112614
510,00;0,113599
509,00;0,117672
508,00;0,117355
507,00;0,117820
506,00;0,120634
505,00;0,114795
504,00;0,111021
503,00;0,106840
502,00;0,099953
501,00;0,092581
500,00;0,080666
499,00;0,075115
498,00;0,069171
497,00;0,059585
496,00;0,054070
495,00;0,048612
494,00;0,044972
493,00;0,042122
492,00;0,041537
491,00;0,034225
490,00;0,037167
489,00;0,038262
488,00;0,034395
487,00;0,025852
486,00;0,027711
485,00;0,023965
484,00;0,019767
483,00;0,010707
482,00;0,007746
481,00;0,002906
480,00;-0,004441
479,00;-0,010888
478,00;-0,011690
477,00;-0,015637
476,00;-0,021840
475,00;-0,026309
474,00;-0,027252
473,00;-0,027766
472,00;-0,025474
471,00;-0,034303
470,00;-0,029608
469,00;-0,035523
468,00;-0,036564
467,00;-0,039104
466,00;-0,043729
465,00;-0,045635
464,00;-0,050386
463,00;-0,053818
462,00;-0,053483
461,00;-0,052790
460,00;-0,056043
459,00;-0,061580
458,00;-0,064401
457,00;-0,063467
456,00;-0,065117
455,00;-0,066273
454,00;-0,068815
453,00;-0,063315
452,00;-0,069547
451,00;-0,072453
450,00;-0,075458
449,00;-0,075598
448,00;-0,071562
447,00;-0,076058
446,00;-0,077108
445,00;-0,082077
444,00;-0,080313
443,00;-0,081072
442,00;-0,078502
441,00;-0,083730
440,00;-0,086040
439,00;-0,088386
438,00;-0,084745
437,00;-0,082816
436,00;-0,085377
435,00;-0,082224
434,00;-0,086432
433,00;-0,084678
432,00;-0,089968
431,00;-0,086670
430,00;-0,095277
429,00;-0,089223
428,00;-0,083023
427,00;-0,089281
426,00;-0,087340
425,00;-0,088533
424,00;-0,089614
423,00;-0,087421
422,00;-0,088855
421,00;-0,088286
420,00;-0,093945
419,00;-0,092231
418,00;-0,087827
417,00;-0,090128
416,00;-0,092155
415,00;-0,092627
414,00;-0,090498
413,00;-0,093323
412,00;-0,083141
411,00;-0,093953
410,00;-0,086388
409,00;-0,089764
408,00;-0,090837
407,00;-0,080225
406,00;-0,086644
405,00;-0,090398
404,00;-0,087166
403,00;-0,085299
402,00;-0,085930
401,00;-0,083671
400,00;-0,080938


prb0.0001
2025-05-14 13:20:05
Dł. fali (nm);Absorbancja
750,00;-0,046995
749,00;-0,042392
748,00;-0,042156
747,00;-0,042926
746,00;-0,041845
745,00;-0,040482
744,00;-0,044337
743,00;-0,044616
742,00;-0,043831
741,00;-0,040217
740,00;-0,044782
739,00;-0,042885
738,00;-0,042659
737,00;-0,042023
736,00;-0,044292
735,00;-0,045168
734,00;-0,042877
733,00;-0,043243
732,00;-0,046339
731,00;-0,043820
730,00;-0,044450
729,00;-0,045655
728,00;-0,045572
727,00;-0,045617
726,00;-0,048394
725,00;-0,044894
724,00;-0,045909
723,00;-0,044700
722,00;-0,048831
721,00;-0,046704
720,00;-0,049035
719,00;-0,048179
718,00;-0,050155
717,00;-0,050687
716,00;-0,050101
715,00;-0,051161
714,00;-0,051574
713,00;-0,050109
712,00;-0,049323
711,00;-0,049307
710,00;-0,048142
709,00;-0,048972
708,00;-0,049178
707,00;-0,051052
706,00;-0,048926
705,00;-0,051657
704,00;-0,050320
703,00;-0,054436
702,00;-0,052063
701,00;-0,050425
700,00;-0,051062
699,00;-0,051894
698,00;-0,054190
697,00;-0,052486
696,00;-0,050449
695,00;-0,051342
694,00;-0,050910
693,00;-0,051146
692,00;-0,051960
691,00;-0,050173
690,00;-0,049448
689,00;-0,052416
688,00;-0,049547
687,00;-0,053279
686,00;-0,051992
685,00;-0,051356
684,00;-0,048855
683,00;-0,052835
682,00;-0,053415
681,00;-0,050400
680,00;-0,054015
679,00;-0,049522
678,00;-0,050367
677,00;-0,053966
676,00;-0,052738
675,00;-0,050774
674,00;-0,053468
673,00;-0,053233
672,00;-0,052508
671,00;-0,050838
670,00;-0,051676
669,00;-0,053697
668,00;-0,051968
667,00;-0,055095
666,00;-0,049220
665,00;-0,049816
664,00;-0,055405
663,00;-0,052742
662,00;-0,055158
661,00;-0,054167
660,00;-0,054594
659,00;-0,052485
658,00;-0,052352
657,00;-0,049230
656,00;-0,053605
655,00;-0,050336
654,00;-0,051954
653,00;-0,052641
652,00;-0,049604
651,00;-0,051537
650,00;-0,049690
649,00;-0,050310
648,00;-0,048686
647,00;-0,050270
646,00;-0,050565
645,00;-0,050440
644,00;-0,053436
643,00;-0,054119
642,00;-0,053687
641,00;-0,048397
640,00;-0,048418
639,00;-0,052972
638,00;-0,045398
637,00;-0,052029
636,00;-0,048403
635,00;-0,049327
634,00;-0,050428
633,00;-0,050754
632,00;-0,051509
631,00;-0,047877
630,00;-0,051182
629,00;-0,048863
628,00;-0,052178
627,00;-0,050341
626,00;-0,051633
625,00;-0,050935
624,00;-0,049750
623,00;-0,046975
622,00;-0,049090
621,00;-0,051838
620,00;-0,049276
619,00;-0,050101
618,00;-0,050760
617,00;-0,052150
616,00;-0,051747
615,00;-0,051284
614,00;-0,046749
613,00;-0,051621
612,00;-0,050030
611,00;-0,049360
610,00;-0,049408
609,00;-0,049237
608,00;-0,051449
607,00;-0,048875
606,00;-0,052531
605,00;-0,048499
604,00;-0,050884
603,00;-0,050363
602,00;-0,052057
601,00;-0,052443
600,00;-0,049241
599,00;-0,048289
598,00;-0,049222
597,00;-0,047184
596,00;-0,052899
595,00;-0,049863
594,00;-0,049219
593,00;-0,052081
592,00;-0,049738
591,00;-0,048030
590,00;-0,046214
589,00;-0,048280
588,00;-0,048322
587,00;-0,044656
586,00;-0,049891
585,00;-0,046337
584,00;-0,045935
583,00;-0,047180
582,00;-0,046338
581,00;-0,042071
580,00;-0,045445
579,00;-0,043381
578,00;-0,042976
577,00;-0,038957
576,00;-0,040840
575,00;-0,039113
574,00;-0,032987
573,00;-0,033461
572,00;-0,037863
571,00;-0,034428
570,00;-0,032950
569,00;-0,032528
568,00;-0,029384
567,00;-0,031770
566,00;-0,032861
565,00;-0,031131
564,00;-0,034007
563,00;-0,032911
562,00;-0,033507
561,00;-0,031663
560,00;-0,032000
559,00;-0,029306
558,00;-0,028382
557,00;-0,025898
556,00;-0,026797
555,00;-0,024253
554,00;-0,025868
553,00;-0,023272
552,00;-0,022025
551,00;-0,020423
550,00;-0,014729
549,00;-0,012934
548,00;-0,013518
547,00;-0,009505
546,00;-0,013981
545,00;-0,013236
544,00;-0,011484
543,00;-0,012338
542,00;-0,013003
541,00;-0,020256
540,00;-0,020397
539,00;-0,020427
538,00;-0,017744
537,00;-0,017556
536,00;-0,018356
535,00;-0,019856
534,00;-0,018231
533,00;-0,020305
532,00;-0,016076
531,00;-0,018604
530,00;-0,014842
529,00;-0,011325
528,00;-0,015184
527,00;-0,014466
526,00;-0,011444
525,00;-0,015000
524,00;-0,012636
523,00;-0,015039
522,00;-0,017034
521,00;-0,019188
520,00;-0,015442
519,00;-0,015508
518,00;-0,017784
517,00;-0,022504
516,00;-0,023494
515,00;-0,023466
514,00;-0,024711
513,00;-0,026214
512,00;-0,021883
511,00;-0,024266
510,00;-0,025114
509,00;-0,022387
508,00;-0,025486
507,00;-0,021374
506,00;-0,019910
505,00;-0,022887
504,00;-0,024709
503,00;-0,025040
502,00;-0,028088
501,00;-0,027497
500,00;-0,030080
499,00;-0,030143
498,00;-0,029074
497,00;-0,031797
496,00;-0,032832
495,00;-0,032646
494,00;-0,032728
493,00;-0,034385
492,00;-0,034836
491,00;-0,036473
490,00;-0,033966
489,00;-0,034323
488,00;-0,033599
487,00;-0,037662
486,00;-0,036860
485,00;-0,036977
484,00;-0,037652
483,00;-0,040144
482,00;-0,037518
481,00;-0,038911
480,00;-0,040961
479,00;-0,043040
478,00;-0,038299
477,00;-0,044386
476,00;-0,042605
475,00;-0,045311
474,00;-0,044084
473,00;-0,046980
472,00;-0,044678
471,00;-0,046447
470,00;-0,044433
469,00;-0,048218
468,00;-0,045457
467,00;-0,045697
466,00;-0,048183
465,00;-0,047192
464,00;-0,049776
463,00;-0,049667
462,00;-0,045413
461,00;-0,046424
460,00;-0,046182
459,00;-0,055458
458,00;-0,052669
457,00;-0,052005
456,00;-0,046940
455,00;-0,050697
454,00;-0,051117
453,00;-0,048461
452,00;-0,052518
451,00;-0,051307
450,00;-0,056349
449,00;-0,054544
448,00;-0,046345
447,00;-0,051433
446,00;-0,050661
445,00;-0,054447
444,00;-0,052092
443,00;-0,054523
442,00;-0,049416
441,00;-0,054256
440,00;-0,058418
439,00;-0,059848
438,00;-0,054878
437,00;-0,055529
436,00;-0,054687
435,00;-0,050172
434,00;-0,051806
433,00;-0,052159
432,00;-0,055814
431,00;-0,053434
430,00;-0,059762
429,00;-0,057109
428,00;-0,050169
427,00;-0,054899
426,00;-0,053747
425,00;-0,055825
424,00;-0,056360
423,00;-0,051243
422,00;-0,052376
421,00;-0,053519
420,00;-0,054935
419,00;-0,054320
418,00;-0,051262
417,00;-0,055821
416,00;-0,055623
415,00;-0,057709
414,00;-0,056271
413,00;-0,055291
412,00;-0,046574
411,00;-0,054480
410,00;-0,051117
409,00;-0,058595
408,00;-0,058722
407,00;-0,049919
406,00;-0,051956
405,00;-0,056577
404,00;-0,057343
403,00;-0,057584
402,00;-0,056673
401,00;-0,057079
400,00;-0,049811


prb0.0001
2025-05-14 13:29:18
Dł. fali (nm);Absorbancja
750,00;-0,128949
749,00;-0,122496
748,00;-0,123783
747,00;-0,126521
746,00;-0,124537
745,00;-0,124567
744,00;-0,125631
743,00;-0,124686
742,00;-0,123546
741,00;-0,122416
740,00;-0,126135
739,00;-0,125217
738,00;-0,126095
737,00;-0,125477
736,00;-0,126912
735,00;-0,128500
734,00;-0,124255
733,00;-0,125281
732,00;-0,129005
731,00;-0,127938
730,00;-0,127679
729,00;-0,130336
728,00;-0,128825
727,00;-0,130278
726,00;-0,132945
725,00;-0,128417
724,00;-0,130431
723,00;-0,128542
722,00;-0,131421
721,00;-0,130572
720,00;-0,130059
719,00;-0,131378
718,00;-0,131427
717,00;-0,133884
716,00;-0,133684
715,00;-0,133166
714,00;-0,135197
713,00;-0,133068
712,00;-0,132862
711,00;-0,133597
710,00;-0,132211
709,00;-0,132294
708,00;-0,133900
707,00;-0,134576
706,00;-0,133272
705,00;-0,135109
704,00;-0,134653
703,00;-0,136992
702,00;-0,134956
701,00;-0,133811
700,00;-0,133108
699,00;-0,133959
698,00;-0,139390
697,00;-0,136403
696,00;-0,133958
695,00;-0,136008
694,00;-0,135378
693,00;-0,136227
692,00;-0,134429
691,00;-0,134524
690,00;-0,134180
689,00;-0,136746
688,00;-0,133058
687,00;-0,136946
686,00;-0,136884
685,00;-0,134326
684,00;-0,133807
683,00;-0,136445
682,00;-0,137443
681,00;-0,134279
680,00;-0,137729
679,00;-0,134719
678,00;-0,135843
677,00;-0,137621
676,00;-0,137033
675,00;-0,137217
674,00;-0,138085
673,00;-0,137753
672,00;-0,137368
671,00;-0,135322
670,00;-0,135987
669,00;-0,138105
668,00;-0,136919
667,00;-0,137085
666,00;-0,135240
665,00;-0,135683
664,00;-0,139270
663,00;-0,136957
662,00;-0,137159
661,00;-0,137108
660,00;-0,136126
659,00;-0,138190
658,00;-0,138540
657,00;-0,133199
656,00;-0,137484
655,00;-0,135423
654,00;-0,136421
653,00;-0,137231
652,00;-0,133900
651,00;-0,136935
650,00;-0,134637
649,00;-0,136129
648,00;-0,135649
647,00;-0,134774
646,00;-0,136617
645,00;-0,135584
644,00;-0,137487
643,00;-0,138834
642,00;-0,134575
641,00;-0,133878
640,00;-0,132335
639,00;-0,135484
638,00;-0,131131
637,00;-0,136562
636,00;-0,134075
635,00;-0,133713
634,00;-0,134517
633,00;-0,137029
632,00;-0,134384
631,00;-0,135900
630,00;-0,135319
629,00;-0,133410
628,00;-0,136145
627,00;-0,134018
626,00;-0,136192
625,00;-0,136507
624,00;-0,134828
623,00;-0,132626
622,00;-0,132977
621,00;-0,136136
620,00;-0,134284
619,00;-0,132667
618,00;-0,135108
617,00;-0,136843
616,00;-0,135963
615,00;-0,136394
614,00;-0,132075
613,00;-0,135502
612,00;-0,133225
611,00;-0,133271
610,00;-0,132153
609,00;-0,134135
608,00;-0,135683
607,00;-0,133921
606,00;-0,132549
605,00;-0,132611
604,00;-0,134782
603,00;-0,135001
602,00;-0,136819
601,00;-0,136031
600,00;-0,134414
599,00;-0,134077
598,00;-0,133471
597,00;-0,130842
596,00;-0,137281
595,00;-0,133993
594,00;-0,134702
593,00;-0,135685
592,00;-0,135343
591,00;-0,132633
590,00;-0,131604
589,00;-0,132968
588,00;-0,133501
587,00;-0,130832
586,00;-0,133707
585,00;-0,130652
584,00;-0,130193
583,00;-0,129769
582,00;-0,130423
581,00;-0,127181
580,00;-0,129538
579,00;-0,126564
578,00;-0,126010
577,00;-0,122918
576,00;-0,123002
575,00;-0,120941
574,00;-0,117807
573,00;-0,118615
572,00;-0,119228
571,00;-0,119373
570,00;-0,114977
569,00;-0,114675
568,00;-0,113107
567,00;-0,113155
566,00;-0,115029
565,00;-0,115979
564,00;-0,116059
563,00;-0,113071
562,00;-0,117054
561,00;-0,115383
560,00;-0,114923
559,00;-0,112975
558,00;-0,110707
557,00;-0,108303
556,00;-0,110304
555,00;-0,106638
554,00;-0,107052
553,00;-0,106117
552,00;-0,105956
551,00;-0,101490
550,00;-0,096661
549,00;-0,095826
548,00;-0,095341
547,00;-0,092089
546,00;-0,096487
545,00;-0,093956
544,00;-0,090146
543,00;-0,095595
542,00;-0,092800
541,00;-0,102190
540,00;-0,103887
539,00;-0,102053
538,00;-0,099903
537,00;-0,099053
536,00;-0,103981
535,00;-0,099866
534,00;-0,099076
533,00;-0,102531
532,00;-0,101306
531,00;-0,099451
530,00;-0,092918
529,00;-0,095388
528,00;-0,100132
527,00;-0,097731
526,00;-0,094295
525,00;-0,097850
524,00;-0,095598
523,00;-0,096788
522,00;-0,097770
521,00;-0,101031
520,00;-0,095668
519,00;-0,096773
518,00;-0,101577
517,00;-0,107392
516,00;-0,106815
515,00;-0,106623
514,00;-0,107322
513,00;-0,108522
512,00;-0,107143
511,00;-0,108140
510,00;-0,108228
509,00;-0,104643
508,00;-0,107411
507,00;-0,107162
506,00;-0,104937
505,00;-0,105871
504,00;-0,108207
503,00;-0,107430
502,00;-0,110562
501,00;-0,110656
500,00;-0,114025
499,00;-0,113288
498,00;-0,113054
497,00;-0,115824
496,00;-0,119301
495,00;-0,117690
494,00;-0,118661
493,00;-0,116031
492,00;-0,116019
491,00;-0,126026
490,00;-0,121185
489,00;-0,117226
488,00;-0,117605
487,00;-0,126703
486,00;-0,123839
485,00;-0,119915
484,00;-0,121057
483,00;-0,130316
482,00;-0,128074
481,00;-0,126877
480,00;-0,129516
479,00;-0,130456
478,00;-0,127246
477,00;-0,129823
476,00;-0,130862
475,00;-0,133799
474,00;-0,133074
473,00;-0,133792
472,00;-0,130098
471,00;-0,136818
470,00;-0,132201
469,00;-0,134071
468,00;-0,132024
467,00;-0,132253
466,00;-0,136147
465,00;-0,134515
464,00;-0,136988
463,00;-0,137636
462,00;-0,134592
461,00;-0,133245
460,00;-0,135785
459,00;-0,142627
458,00;-0,140455
457,00;-0,140354
456,00;-0,140596
455,00;-0,138898
454,00;-0,141972
453,00;-0,135054
452,00;-0,140829
451,00;-0,141160
450,00;-0,143079
449,00;-0,143408
448,00;-0,137281
447,00;-0,140644
446,00;-0,140225
445,00;-0,144731
444,00;-0,142402
443,00;-0,141757
442,00;-0,139754
441,00;-0,144291
440,00;-0,148703
439,00;-0,149193
438,00;-0,144719
437,00;-0,142747
436,00;-0,143101
435,00;-0,139088
434,00;-0,142960
433,00;-0,142419
432,00;-0,145879
431,00;-0,143716
430,00;-0,151938
429,00;-0,145296
428,00;-0,138701
427,00;-0,144106
426,00;-0,142353
425,00;-0,142990
424,00;-0,144834
423,00;-0,142245
422,00;-0,143675
421,00;-0,145420
420,00;-0,147159
419,00;-0,146150
418,00;-0,143866
417,00;-0,146391
416,00;-0,147198
415,00;-0,148523
414,00;-0,146398
413,00;-0,147366
412,00;-0,138298
411,00;-0,146684
410,00;-0,143314
409,00;-0,146985
408,00;-0,147223
407,00;-0,140563
406,00;-0,143527
405,00;-0,148464
404,00;-0,146508
403,00;-0,146592
402,00;-0,147519
401,00;-0,144649
400,00;-0,141908


prb+unknown
2025-05-14 13:30:46
Dł. fali (nm);Absorbancja
750,00;-0,117784
749,00;-0,114378
748,00;-0,115490
747,00;-0,114592
746,00;-0,114403
745,00;-0,114276
744,00;-0,115484
743,00;-0,114688
742,00;-0,113460
741,00;-0,112533
740,00;-0,115708
739,00;-0,114939
738,00;-0,113717
737,00;-0,114095
736,00;-0,116157
735,00;-0,117582
734,00;-0,115776
733,00;-0,115047
732,00;-0,118696
731,00;-0,116602
730,00;-0,117030
729,00;-0,119409
728,00;-0,118028
727,00;-0,119845
726,00;-0,121534
725,00;-0,117630
724,00;-0,118880
723,00;-0,117462
722,00;-0,120665
721,00;-0,119651
720,00;-0,118909
719,00;-0,120739
718,00;-0,120697
717,00;-0,123487
716,00;-0,123121
715,00;-0,122245
714,00;-0,122331
713,00;-0,120237
712,00;-0,119860
711,00;-0,119793
710,00;-0,120463
709,00;-0,120567
708,00;-0,122496
707,00;-0,122367
706,00;-0,119811
705,00;-0,121980
704,00;-0,120686
703,00;-0,123084
702,00;-0,120453
701,00;-0,120107
700,00;-0,120007
699,00;-0,121015
698,00;-0,125936
697,00;-0,122961
696,00;-0,119298
695,00;-0,121366
694,00;-0,120292
693,00;-0,122050
692,00;-0,118592
691,00;-0,119489
690,00;-0,118496
689,00;-0,122087
688,00;-0,118230
687,00;-0,121511
686,00;-0,120758
685,00;-0,118449
684,00;-0,117273
683,00;-0,118811
682,00;-0,121046
681,00;-0,116741
680,00;-0,120706
679,00;-0,118431
678,00;-0,119365
677,00;-0,120050
676,00;-0,119967
675,00;-0,119110
674,00;-0,119739
673,00;-0,119934
672,00;-0,119642
671,00;-0,117404
670,00;-0,118662
669,00;-0,120087
668,00;-0,118707
667,00;-0,117990
666,00;-0,115286
665,00;-0,115915
664,00;-0,120148
663,00;-0,117733
662,00;-0,117199
661,00;-0,115686
660,00;-0,116154
659,00;-0,117475
658,00;-0,118015
657,00;-0,111686
656,00;-0,115855
655,00;-0,113779
654,00;-0,115502
653,00;-0,116393
652,00;-0,112883
651,00;-0,114826
650,00;-0,112263
649,00;-0,113893
648,00;-0,112881
647,00;-0,111840
646,00;-0,113609
645,00;-0,110858
644,00;-0,113356
643,00;-0,115235
642,00;-0,110981
641,00;-0,110494
640,00;-0,109328
639,00;-0,112836
638,00;-0,107905
637,00;-0,111782
636,00;-0,109859
635,00;-0,109243
634,00;-0,110502
633,00;-0,111539
632,00;-0,109427
631,00;-0,111593
630,00;-0,109701
629,00;-0,108407
628,00;-0,110168
627,00;-0,108699
626,00;-0,111111
625,00;-0,109985
624,00;-0,109367
623,00;-0,105369
622,00;-0,108440
621,00;-0,109021
620,00;-0,108713
619,00;-0,106237
618,00;-0,108908
617,00;-0,109904
616,00;-0,109079
615,00;-0,108848
614,00;-0,104120
613,00;-0,108281
612,00;-0,106491
611,00;-0,105063
610,00;-0,104094
609,00;-0,106225
608,00;-0,107726
607,00;-0,105036
606,00;-0,104505
605,00;-0,103331
604,00;-0,105741
603,00;-0,105359
602,00;-0,106479
601,00;-0,106108
600,00;-0,104915
599,00;-0,103367
598,00;-0,102683
597,00;-0,100284
596,00;-0,105950
595,00;-0,102784
594,00;-0,102191
593,00;-0,102538
592,00;-0,102126
591,00;-0,098907
590,00;-0,096488
589,00;-0,097277
588,00;-0,095722
587,00;-0,092029
586,00;-0,094381
585,00;-0,088562
584,00;-0,085927
583,00;-0,083022
582,00;-0,080241
581,00;-0,073589
580,00;-0,072083
579,00;-0,064591
578,00;-0,058896
577,00;-0,050965
576,00;-0,045621
575,00;-0,038098
574,00;-0,029651
573,00;-0,025744
572,00;-0,022063
571,00;-0,019171
570,00;-0,011900
569,00;-0,008894
568,00;-0,005181
567,00;-0,005084
566,00;-0,007061
565,00;-0,007218
564,00;-0,007771
563,00;-0,005195
562,00;-0,008124
561,00;-0,006387
560,00;-0,005264
559,00;-0,001626
558,00;0,003926
557,00;0,010500
556,00;0,012238
555,00;0,022167
554,00;0,029391
553,00;0,036521
552,00;0,044593
551,00;0,055256
550,00;0,067316
549,00;0,074224
548,00;0,080414
547,00;0,086518
546,00;0,084235
545,00;0,086964
544,00;0,089094
543,00;0,082239
542,00;0,082194
541,00;0,068777
540,00;0,064034
539,00;0,062030
538,00;0,061136
537,00;0,060555
536,00;0,054554
535,00;0,058086
534,00;0,059816
533,00;0,058472
532,00;0,063535
531,00;0,069809
530,00;0,080733
529,00;0,082779
528,00;0,081900
527,00;0,087785
526,00;0,092603
525,00;0,090014
524,00;0,091042
523,00;0,086962
522,00;0,082556
521,00;0,074017
520,00;0,073749
519,00;0,068598
518,00;0,057987
517,00;0,046541
516,00;0,043284
515,00;0,040447
514,00;0,036876
513,00;0,034622
512,00;0,035531
511,00;0,035332
510,00;0,035522
509,00;0,039862
508,00;0,038682
507,00;0,039602
506,00;0,041912
505,00;0,038513
504,00;0,033789
503,00;0,030892
502,00;0,024890
501,00;0,020032
500,00;0,011336
499,00;0,007556
498,00;0,003161
497,00;-0,003843
496,00;-0,011078
495,00;-0,012705
494,00;-0,015824
493,00;-0,015343
492,00;-0,016593
491,00;-0,027837
490,00;-0,023447
489,00;-0,020004
488,00;-0,021486
487,00;-0,031478
486,00;-0,030700
485,00;-0,028931
484,00;-0,032956
483,00;-0,045897
482,00;-0,046529
481,00;-0,048739
480,00;-0,054352
479,00;-0,058022
478,00;-0,057997
477,00;-0,062695
476,00;-0,064829
475,00;-0,069665
474,00;-0,070080
473,00;-0,071371
472,00;-0,068894
471,00;-0,076814
470,00;-0,072865
469,00;-0,076392
468,00;-0,075693
467,00;-0,077327
466,00;-0,083619
465,00;-0,083533
464,00;-0,086885
463,00;-0,089778
462,00;-0,087960
461,00;-0,088031
460,00;-0,091729
459,00;-0,099291
458,00;-0,098517
457,00;-0,099262
456,00;-0,099006
455,00;-0,098231
454,00;-0,100919
453,00;-0,096042
452,00;-0,102316
451,00;-0,103301
450,00;-0,106041
449,00;-0,106480
448,00;-0,101806
447,00;-0,105720
446,00;-0,105585
445,00;-0,110382
444,00;-0,109085
443,00;-0,108549
442,00;-0,106676
441,00;-0,111273
440,00;-0,116213
439,00;-0,116691
438,00;-0,112383
437,00;-0,111194
436,00;-0,111864
435,00;-0,107987
434,00;-0,111858
433,00;-0,111369
432,00;-0,115440
431,00;-0,112823
430,00;-0,120898
429,00;-0,113525
428,00;-0,107729
427,00;-0,113391
426,00;-0,111539
425,00;-0,112046
424,00;-0,114019
423,00;-0,110949
422,00;-0,112305
421,00;-0,114407
420,00;-0,116114
419,00;-0,115258
418,00;-0,112592
417,00;-0,114991
416,00;-0,115231
415,00;-0,116043
414,00;-0,113826
413,00;-0,114839
412,00;-0,105533
411,00;-0,113588
410,00;-0,109655
409,00;-0,111984
408,00;-0,112719
407,00;-0,105605
406,00;-0,107598
405,00;-0,112076
404,00;-0,109854
403,00;-0,108452
402,00;-0,109262
401,00;-0,105738
400,00;-0,101717
